! Solar data file for CrIS hiRes 080808 SARTA fast model
!
! Data for 645-1500 cm-1 comes from M.P. Thekaekara, 1973 Solar
! Energy v.14 p.109-127 (supplied to us by Chris Barnet).  The ~80
! cm-1 point spacing data has been interpolated to the IASI
! channel freqs and converted to W/(m2.sr.cm-1).
!
! Data for 1500-2760 cm-1 comes from ATMOS Solar Spectra, and was
! supplied to us by ATMOS Principal Investigator Michael Gunson.
! In particular we used the file "atmos_corrected_solar.mat".
! This data was then directly convolved with IASI SRFs (Gaussian
! 2cm apodization) for each channel to approximate the effective
! solar irradiance.
!
!chan frequency  solar
!----  -------  -------
2212  647.500   15.415
2213  648.125   15.440
2214  648.750   15.466
2215  649.375   15.492
   1  650.000   15.517
   2  650.625   15.543
   3  651.250   15.569
   4  651.875   15.595
   5  652.500   15.621
   6  653.125   15.648
   7  653.750   15.674
   8  654.375   15.700
   9  655.000   15.727
  10  655.625   15.754
  11  656.250   15.781
  12  656.875   15.808
  13  657.500   15.835
  14  658.125   15.863
  15  658.750   15.890
  16  659.375   15.918
  17  660.000   15.945
  18  660.625   15.973
  19  661.250   16.001
  20  661.875   16.029
  21  662.500   16.057
  22  663.125   16.085
  23  663.750   16.114
  24  664.375   16.142
  25  665.000   16.171
  26  665.625   16.200
  27  666.250   16.229
  28  666.875   16.259
  29  667.500   16.288
  30  668.125   16.318
  31  668.750   16.347
  32  669.375   16.377
  33  670.000   16.407
  34  670.625   16.438
  35  671.250   16.468
  36  671.875   16.498
  37  672.500   16.529
  38  673.125   16.559
  39  673.750   16.590
  40  674.375   16.621
  41  675.000   16.652
  42  675.625   16.684
  43  676.250   16.715
  44  676.875   16.746
  45  677.500   16.778
  46  678.125   16.809
  47  678.750   16.841
  48  679.375   16.873
  49  680.000   16.905
  50  680.625   16.938
  51  681.250   16.969
  52  681.875   17.002
  53  682.500   17.034
  54  683.125   17.066
  55  683.750   17.099
  56  684.375   17.132
  57  685.000   17.164
  58  685.625   17.197
  59  686.250   17.230
  60  686.875   17.262
  61  687.500   17.296
  62  688.125   17.328
  63  688.750   17.362
  64  689.375   17.395
  65  690.000   17.429
  66  690.625   17.462
  67  691.250   17.495
  68  691.875   17.529
  69  692.500   17.562
  70  693.125   17.596
  71  693.750   17.629
  72  694.375   17.663
  73  695.000   17.696
  74  695.625   17.730
  75  696.250   17.764
  76  696.875   17.797
  77  697.500   17.831
  78  698.125   17.865
  79  698.750   17.899
  80  699.375   17.933
  81  700.000   17.967
  82  700.625   18.001
  83  701.250   18.034
  84  701.875   18.069
  85  702.500   18.102
  86  703.125   18.136
  87  703.750   18.170
  88  704.375   18.204
  89  705.000   18.238
  90  705.625   18.272
  91  706.250   18.306
  92  706.875   18.340
  93  707.500   18.374
  94  708.125   18.407
  95  708.750   18.442
  96  709.375   18.476
  97  710.000   18.509
  98  710.625   18.543
  99  711.250   18.577
 100  711.875   18.611
 101  712.500   18.645
 102  713.125   18.678
 103  713.750   18.712
 104  714.375   18.745
 105  715.000   18.779
 106  715.625   18.812
 107  716.250   18.846
 108  716.875   18.880
 109  717.500   18.913
 110  718.125   18.947
 111  718.750   18.980
 112  719.375   19.013
 113  720.000   19.046
 114  720.625   19.079
 115  721.250   19.113
 116  721.875   19.146
 117  722.500   19.179
 118  723.125   19.212
 119  723.750   19.245
 120  724.375   19.279
 121  725.000   19.311
 122  725.625   19.345
 123  726.250   19.377
 124  726.875   19.410
 125  727.500   19.444
 126  728.125   19.477
 127  728.750   19.509
 128  729.375   19.543
 129  730.000   19.575
 130  730.625   19.608
 131  731.250   19.641
 132  731.875   19.674
 133  732.500   19.707
 134  733.125   19.739
 135  733.750   19.773
 136  734.375   19.806
 137  735.000   19.838
 138  735.625   19.871
 139  736.250   19.904
 140  736.875   19.937
 141  737.500   19.970
 142  738.125   20.002
 143  738.750   20.036
 144  739.375   20.069
 145  740.000   20.101
 146  740.625   20.134
 147  741.250   20.167
 148  741.875   20.200
 149  742.500   20.233
 150  743.125   20.267
 151  743.750   20.299
 152  744.375   20.332
 153  745.000   20.365
 154  745.625   20.398
 155  746.250   20.431
 156  746.875   20.464
 157  747.500   20.497
 158  748.125   20.530
 159  748.750   20.563
 160  749.375   20.596
 161  750.000   20.630
 162  750.625   20.663
 163  751.250   20.696
 164  751.875   20.730
 165  752.500   20.763
 166  753.125   20.796
 167  753.750   20.829
 168  754.375   20.863
 169  755.000   20.896
 170  755.625   20.929
 171  756.250   20.963
 172  756.875   20.996
 173  757.500   21.030
 174  758.125   21.063
 175  758.750   21.097
 176  759.375   21.131
 177  760.000   21.165
 178  760.625   21.198
 179  761.250   21.232
 180  761.875   21.267
 181  762.500   21.300
 182  763.125   21.334
 183  763.750   21.368
 184  764.375   21.402
 185  765.000   21.437
 186  765.625   21.471
 187  766.250   21.505
 188  766.875   21.540
 189  767.500   21.574
 190  768.125   21.608
 191  768.750   21.643
 192  769.375   21.678
 193  770.000   21.712
 194  770.625   21.747
 195  771.250   21.782
 196  771.875   21.817
 197  772.500   21.852
 198  773.125   21.886
 199  773.750   21.921
 200  774.375   21.956
 201  775.000   21.992
 202  775.625   22.027
 203  776.250   22.062
 204  776.875   22.098
 205  777.500   22.133
 206  778.125   22.168
 207  778.750   22.204
 208  779.375   22.239
 209  780.000   22.275
 210  780.625   22.311
 211  781.250   22.346
 212  781.875   22.383
 213  782.500   22.418
 214  783.125   22.454
 215  783.750   22.490
 216  784.375   22.526
 217  785.000   22.562
 218  785.625   22.598
 219  786.250   22.634
 220  786.875   22.671
 221  787.500   22.707
 222  788.125   22.743
 223  788.750   22.779
 224  789.375   22.816
 225  790.000   22.852
 226  790.625   22.889
 227  791.250   22.925
 228  791.875   22.962
 229  792.500   22.999
 230  793.125   23.035
 231  793.750   23.072
 232  794.375   23.109
 233  795.000   23.146
 234  795.625   23.183
 235  796.250   23.219
 236  796.875   23.256
 237  797.500   23.294
 238  798.125   23.331
 239  798.750   23.368
 240  799.375   23.404
 241  800.000   23.442
 242  800.625   23.480
 243  801.250   23.516
 244  801.875   23.553
 245  802.500   23.591
 246  803.125   23.628
 247  803.750   23.666
 248  804.375   23.703
 249  805.000   23.741
 250  805.625   23.779
 251  806.250   23.816
 252  806.875   23.854
 253  807.500   23.891
 254  808.125   23.928
 255  808.750   23.966
 256  809.375   24.003
 257  810.000   24.042
 258  810.625   24.079
 259  811.250   24.117
 260  811.875   24.155
 261  812.500   24.193
 262  813.125   24.230
 263  813.750   24.269
 264  814.375   24.306
 265  815.000   24.345
 266  815.625   24.383
 267  816.250   24.420
 268  816.875   24.459
 269  817.500   24.497
 270  818.125   24.535
 271  818.750   24.573
 272  819.375   24.611
 273  820.000   24.649
 274  820.625   24.688
 275  821.250   24.726
 276  821.875   24.764
 277  822.500   24.802
 278  823.125   24.840
 279  823.750   24.879
 280  824.375   24.917
 281  825.000   24.955
 282  825.625   24.994
 283  826.250   25.032
 284  826.875   25.070
 285  827.500   25.109
 286  828.125   25.148
 287  828.750   25.186
 288  829.375   25.224
 289  830.000   25.263
 290  830.625   25.302
 291  831.250   25.340
 292  831.875   25.378
 293  832.500   25.417
 294  833.125   25.456
 295  833.750   25.494
 296  834.375   25.532
 297  835.000   25.571
 298  835.625   25.610
 299  836.250   25.648
 300  836.875   25.687
 301  837.500   25.725
 302  838.125   25.764
 303  838.750   25.803
 304  839.375   25.841
 305  840.000   25.880
 306  840.625   25.919
 307  841.250   25.957
 308  841.875   25.996
 309  842.500   26.035
 310  843.125   26.073
 311  843.750   26.112
 312  844.375   26.151
 313  845.000   26.190
 314  845.625   26.229
 315  846.250   26.268
 316  846.875   26.306
 317  847.500   26.346
 318  848.125   26.384
 319  848.750   26.423
 320  849.375   26.462
 321  850.000   26.501
 322  850.625   26.540
 323  851.250   26.579
 324  851.875   26.618
 325  852.500   26.657
 326  853.125   26.697
 327  853.750   26.735
 328  854.375   26.774
 329  855.000   26.814
 330  855.625   26.852
 331  856.250   26.892
 332  856.875   26.931
 333  857.500   26.970
 334  858.125   27.009
 335  858.750   27.049
 336  859.375   27.088
 337  860.000   27.127
 338  860.625   27.167
 339  861.250   27.206
 340  861.875   27.245
 341  862.500   27.285
 342  863.125   27.325
 343  863.750   27.364
 344  864.375   27.403
 345  865.000   27.443
 346  865.625   27.483
 347  866.250   27.522
 348  866.875   27.562
 349  867.500   27.601
 350  868.125   27.641
 351  868.750   27.680
 352  869.375   27.720
 353  870.000   27.760
 354  870.625   27.800
 355  871.250   27.840
 356  871.875   27.879
 357  872.500   27.919
 358  873.125   27.959
 359  873.750   27.999
 360  874.375   28.039
 361  875.000   28.079
 362  875.625   28.119
 363  876.250   28.159
 364  876.875   28.199
 365  877.500   28.239
 366  878.125   28.279
 367  878.750   28.320
 368  879.375   28.360
 369  880.000   28.400
 370  880.625   28.440
 371  881.250   28.481
 372  881.875   28.521
 373  882.500   28.562
 374  883.125   28.602
 375  883.750   28.642
 376  884.375   28.683
 377  885.000   28.724
 378  885.625   28.764
 379  886.250   28.805
 380  886.875   28.846
 381  887.500   28.886
 382  888.125   28.927
 383  888.750   28.967
 384  889.375   29.008
 385  890.000   29.049
 386  890.625   29.090
 387  891.250   29.131
 388  891.875   29.172
 389  892.500   29.213
 390  893.125   29.254
 391  893.750   29.295
 392  894.375   29.336
 393  895.000   29.377
 394  895.625   29.419
 395  896.250   29.460
 396  896.875   29.501
 397  897.500   29.543
 398  898.125   29.584
 399  898.750   29.625
 400  899.375   29.666
 401  900.000   29.708
 402  900.625   29.750
 403  901.250   29.791
 404  901.875   29.833
 405  902.500   29.875
 406  903.125   29.916
 407  903.750   29.958
 408  904.375   30.001
 409  905.000   30.042
 410  905.625   30.084
 411  906.250   30.126
 412  906.875   30.167
 413  907.500   30.210
 414  908.125   30.252
 415  908.750   30.294
 416  909.375   30.337
 417  910.000   30.379
 418  910.625   30.421
 419  911.250   30.463
 420  911.875   30.505
 421  912.500   30.548
 422  913.125   30.590
 423  913.750   30.633
 424  914.375   30.675
 425  915.000   30.718
 426  915.625   30.761
 427  916.250   30.804
 428  916.875   30.846
 429  917.500   30.890
 430  918.125   30.932
 431  918.750   30.975
 432  919.375   31.018
 433  920.000   31.061
 434  920.625   31.105
 435  921.250   31.147
 436  921.875   31.191
 437  922.500   31.234
 438  923.125   31.276
 439  923.750   31.320
 440  924.375   31.364
 441  925.000   31.407
 442  925.625   31.450
 443  926.250   31.494
 444  926.875   31.537
 445  927.500   31.581
 446  928.125   31.624
 447  928.750   31.668
 448  929.375   31.712
 449  930.000   31.755
 450  930.625   31.798
 451  931.250   31.842
 452  931.875   31.886
 453  932.500   31.930
 454  933.125   31.974
 455  933.750   32.018
 456  934.375   32.062
 457  935.000   32.106
 458  935.625   32.150
 459  936.250   32.194
 460  936.875   32.238
 461  937.500   32.282
 462  938.125   32.326
 463  938.750   32.371
 464  939.375   32.415
 465  940.000   32.459
 466  940.625   32.504
 467  941.250   32.548
 468  941.875   32.592
 469  942.500   32.637
 470  943.125   32.681
 471  943.750   32.726
 472  944.375   32.770
 473  945.000   32.815
 474  945.625   32.859
 475  946.250   32.904
 476  946.875   32.949
 477  947.500   32.994
 478  948.125   33.038
 479  948.750   33.083
 480  949.375   33.128
 481  950.000   33.173
 482  950.625   33.218
 483  951.250   33.263
 484  951.875   33.308
 485  952.500   33.353
 486  953.125   33.398
 487  953.750   33.443
 488  954.375   33.488
 489  955.000   33.533
 490  955.625   33.578
 491  956.250   33.623
 492  956.875   33.668
 493  957.500   33.714
 494  958.125   33.759
 495  958.750   33.804
 496  959.375   33.850
 497  960.000   33.895
 498  960.625   33.940
 499  961.250   33.985
 500  961.875   34.031
 501  962.500   34.077
 502  963.125   34.122
 503  963.750   34.167
 504  964.375   34.213
 505  965.000   34.259
 506  965.625   34.304
 507  966.250   34.350
 508  966.875   34.395
 509  967.500   34.441
 510  968.125   34.487
 511  968.750   34.532
 512  969.375   34.578
 513  970.000   34.624
 514  970.625   34.670
 515  971.250   34.716
 516  971.875   34.761
 517  972.500   34.807
 518  973.125   34.853
 519  973.750   34.899
 520  974.375   34.945
 521  975.000   34.991
 522  975.625   35.037
 523  976.250   35.083
 524  976.875   35.129
 525  977.500   35.175
 526  978.125   35.221
 527  978.750   35.267
 528  979.375   35.314
 529  980.000   35.360
 530  980.625   35.406
 531  981.250   35.452
 532  981.875   35.498
 533  982.500   35.544
 534  983.125   35.591
 535  983.750   35.637
 536  984.375   35.683
 537  985.000   35.729
 538  985.625   35.775
 539  986.250   35.822
 540  986.875   35.868
 541  987.500   35.915
 542  988.125   35.961
 543  988.750   36.007
 544  989.375   36.054
 545  990.000   36.100
 546  990.625   36.147
 547  991.250   36.193
 548  991.875   36.239
 549  992.500   36.286
 550  993.125   36.332
 551  993.750   36.379
 552  994.375   36.425
 553  995.000   36.472
 554  995.625   36.519
 555  996.250   36.565
 556  996.875   36.612
 557  997.500   36.659
 558  998.125   36.706
 559  998.750   36.752
 560  999.375   36.799
 561 1000.000   36.845
 562 1000.625   36.892
 563 1001.250   36.939
 564 1001.875   36.986
 565 1002.500   37.032
 566 1003.125   37.079
 567 1003.750   37.126
 568 1004.375   37.172
 569 1005.000   37.219
 570 1005.625   37.266
 571 1006.250   37.313
 572 1006.875   37.359
 573 1007.500   37.406
 574 1008.125   37.454
 575 1008.750   37.500
 576 1009.375   37.546
 577 1010.000   37.594
 578 1010.625   37.641
 579 1011.250   37.688
 580 1011.875   37.734
 581 1012.500   37.782
 582 1013.125   37.829
 583 1013.750   37.875
 584 1014.375   37.922
 585 1015.000   37.969
 586 1015.625   38.017
 587 1016.250   38.063
 588 1016.875   38.111
 589 1017.500   38.157
 590 1018.125   38.204
 591 1018.750   38.251
 592 1019.375   38.299
 593 1020.000   38.346
 594 1020.625   38.392
 595 1021.250   38.440
 596 1021.875   38.486
 597 1022.500   38.534
 598 1023.125   38.582
 599 1023.750   38.628
 600 1024.375   38.675
 601 1025.000   38.723
 602 1025.625   38.770
 603 1026.250   38.817
 604 1026.875   38.864
 605 1027.500   38.912
 606 1028.125   38.959
 607 1028.750   39.006
 608 1029.375   39.053
 609 1030.000   39.101
 610 1030.625   39.148
 611 1031.250   39.195
 612 1031.875   39.242
 613 1032.500   39.290
 614 1033.125   39.338
 615 1033.750   39.385
 616 1034.375   39.433
 617 1035.000   39.480
 618 1035.625   39.528
 619 1036.250   39.575
 620 1036.875   39.623
 621 1037.500   39.670
 622 1038.125   39.717
 623 1038.750   39.764
 624 1039.375   39.812
 625 1040.000   39.860
 626 1040.625   39.907
 627 1041.250   39.955
 628 1041.875   40.002
 629 1042.500   40.050
 630 1043.125   40.097
 631 1043.750   40.145
 632 1044.375   40.192
 633 1045.000   40.240
 634 1045.625   40.288
 635 1046.250   40.336
 636 1046.875   40.383
 637 1047.500   40.431
 638 1048.125   40.478
 639 1048.750   40.526
 640 1049.375   40.575
 641 1050.000   40.622
 642 1050.625   40.669
 643 1051.250   40.717
 644 1051.875   40.766
 645 1052.500   40.813
 646 1053.125   40.861
 647 1053.750   40.909
 648 1054.375   40.957
 649 1055.000   41.005
 650 1055.625   41.052
 651 1056.250   41.100
 652 1056.875   41.148
 653 1057.500   41.196
 654 1058.125   41.245
 655 1058.750   41.292
 656 1059.375   41.340
 657 1060.000   41.388
 658 1060.625   41.436
 659 1061.250   41.484
 660 1061.875   41.532
 661 1062.500   41.580
 662 1063.125   41.629
 663 1063.750   41.676
 664 1064.375   41.725
 665 1065.000   41.773
 666 1065.625   41.820
 667 1066.250   41.869
 668 1066.875   41.917
 669 1067.500   41.965
 670 1068.125   42.014
 671 1068.750   42.061
 672 1069.375   42.109
 673 1070.000   42.158
 674 1070.625   42.207
 675 1071.250   42.254
 676 1071.875   42.302
 677 1072.500   42.351
 678 1073.125   42.400
 679 1073.750   42.448
 680 1074.375   42.496
 681 1075.000   42.544
 682 1075.625   42.593
 683 1076.250   42.641
 684 1076.875   42.689
 685 1077.500   42.738
 686 1078.125   42.787
 687 1078.750   42.835
 688 1079.375   42.883
 689 1080.000   42.932
 690 1080.625   42.980
 691 1081.250   43.029
 692 1081.875   43.077
 693 1082.500   43.126
 694 1083.125   43.174
 695 1083.750   43.223
 696 1084.375   43.272
 697 1085.000   43.320
 698 1085.625   43.368
 699 1086.250   43.417
 700 1086.875   43.466
 701 1087.500   43.515
 702 1088.125   43.564
 703 1088.750   43.612
 704 1089.375   43.661
 705 1090.000   43.710
 706 1090.625   43.758
 707 1091.250   43.807
 708 1091.875   43.856
 709 1092.500   43.905
 710 1093.125   43.954
 711 1093.750   44.002
 712 1094.375   44.051
 713 1095.000   44.100
2216 1095.625   44.148
2217 1096.250   44.197
2218 1096.875   44.246
2219 1097.500   44.295
2220 1207.500   53.120
2221 1208.125   53.170
2222 1208.750   53.221
2223 1209.375   53.273
 714 1210.000   53.324
 715 1210.625   53.374
 716 1211.250   53.425
 717 1211.875   53.477
 718 1212.500   53.528
 719 1213.125   53.578
 720 1213.750   53.629
 721 1214.375   53.681
 722 1215.000   53.732
 723 1215.625   53.783
 724 1216.250   53.834
 725 1216.875   53.885
 726 1217.500   53.936
 727 1218.125   53.987
 728 1218.750   54.038
 729 1219.375   54.089
 730 1220.000   54.140
 731 1220.625   54.191
 732 1221.250   54.242
 733 1221.875   54.294
 734 1222.500   54.345
 735 1223.125   54.395
 736 1223.750   54.447
 737 1224.375   54.498
 738 1225.000   54.549
 739 1225.625   54.600
 740 1226.250   54.651
 741 1226.875   54.702
 742 1227.500   54.753
 743 1228.125   54.804
 744 1228.750   54.855
 745 1229.375   54.907
 746 1230.000   54.958
 747 1230.625   55.009
 748 1231.250   55.060
 749 1231.875   55.111
 750 1232.500   55.162
 751 1233.125   55.213
 752 1233.750   55.264
 753 1234.375   55.316
 754 1235.000   55.367
 755 1235.625   55.418
 756 1236.250   55.469
 757 1236.875   55.520
 758 1237.500   55.572
 759 1238.125   55.623
 760 1238.750   55.674
 761 1239.375   55.725
 762 1240.000   55.776
 763 1240.625   55.827
 764 1241.250   55.878
 765 1241.875   55.929
 766 1242.500   55.981
 767 1243.125   56.032
 768 1243.750   56.083
 769 1244.375   56.135
 770 1245.000   56.186
 771 1245.625   56.236
 772 1246.250   56.288
 773 1246.875   56.339
 774 1247.500   56.390
 775 1248.125   56.441
 776 1248.750   56.492
 777 1249.375   56.544
 778 1250.000   56.595
 779 1250.625   56.646
 780 1251.250   56.697
 781 1251.875   56.748
 782 1252.500   56.800
 783 1253.125   56.851
 784 1253.750   56.902
 785 1254.375   56.953
 786 1255.000   57.004
 787 1255.625   57.056
 788 1256.250   57.106
 789 1256.875   57.157
 790 1257.500   57.209
 791 1258.125   57.260
 792 1258.750   57.311
 793 1259.375   57.362
 794 1260.000   57.414
 795 1260.625   57.465
 796 1261.250   57.516
 797 1261.875   57.568
 798 1262.500   57.619
 799 1263.125   57.670
 800 1263.750   57.721
 801 1264.375   57.772
 802 1265.000   57.823
 803 1265.625   57.874
 804 1266.250   57.926
 805 1266.875   57.977
 806 1267.500   58.028
 807 1268.125   58.079
 808 1268.750   58.130
 809 1269.375   58.181
 810 1270.000   58.233
 811 1270.625   58.284
 812 1271.250   58.335
 813 1271.875   58.386
 814 1272.500   58.438
 815 1273.125   58.489
 816 1273.750   58.540
 817 1274.375   58.591
 818 1275.000   58.643
 819 1275.625   58.694
 820 1276.250   58.745
 821 1276.875   58.797
 822 1277.500   58.848
 823 1278.125   58.899
 824 1278.750   58.950
 825 1279.375   59.002
 826 1280.000   59.053
 827 1280.625   59.104
 828 1281.250   59.155
 829 1281.875   59.206
 830 1282.500   59.258
 831 1283.125   59.309
 832 1283.750   59.360
 833 1284.375   59.412
 834 1285.000   59.463
 835 1285.625   59.514
 836 1286.250   59.565
 837 1286.875   59.617
 838 1287.500   59.668
 839 1288.125   59.719
 840 1288.750   59.771
 841 1289.375   59.822
 842 1290.000   59.873
 843 1290.625   59.925
 844 1291.250   59.976
 845 1291.875   60.028
 846 1292.500   60.079
 847 1293.125   60.130
 848 1293.750   60.181
 849 1294.375   60.233
 850 1295.000   60.284
 851 1295.625   60.335
 852 1296.250   60.387
 853 1296.875   60.438
 854 1297.500   60.490
 855 1298.125   60.541
 856 1298.750   60.592
 857 1299.375   60.644
 858 1300.000   60.695
 859 1300.625   60.746
 860 1301.250   60.798
 861 1301.875   60.849
 862 1302.500   60.901
 863 1303.125   60.952
 864 1303.750   61.003
 865 1304.375   61.054
 866 1305.000   61.106
 867 1305.625   61.158
 868 1306.250   61.209
 869 1306.875   61.261
 870 1307.500   61.312
 871 1308.125   61.364
 872 1308.750   61.415
 873 1309.375   61.466
 874 1310.000   61.518
 875 1310.625   61.569
 876 1311.250   61.621
 877 1311.875   61.672
 878 1312.500   61.724
 879 1313.125   61.776
 880 1313.750   61.827
 881 1314.375   61.879
 882 1315.000   61.930
 883 1315.625   61.981
 884 1316.250   62.033
 885 1316.875   62.084
 886 1317.500   62.136
 887 1318.125   62.188
 888 1318.750   62.239
 889 1319.375   62.291
 890 1320.000   62.343
 891 1320.625   62.394
 892 1321.250   62.446
 893 1321.875   62.498
 894 1322.500   62.549
 895 1323.125   62.600
 896 1323.750   62.652
 897 1324.375   62.703
 898 1325.000   62.756
 899 1325.625   62.807
 900 1326.250   62.859
 901 1326.875   62.910
 902 1327.500   62.962
 903 1328.125   63.014
 904 1328.750   63.065
 905 1329.375   63.117
 906 1330.000   63.169
 907 1330.625   63.221
 908 1331.250   63.272
 909 1331.875   63.325
 910 1332.500   63.376
 911 1333.125   63.428
 912 1333.750   63.479
 913 1334.375   63.532
 914 1335.000   63.583
 915 1335.625   63.635
 916 1336.250   63.686
 917 1336.875   63.739
 918 1337.500   63.790
 919 1338.125   63.842
 920 1338.750   63.894
 921 1339.375   63.946
 922 1340.000   63.997
 923 1340.625   64.049
 924 1341.250   64.101
 925 1341.875   64.153
 926 1342.500   64.205
 927 1343.125   64.256
 928 1343.750   64.308
 929 1344.375   64.361
 930 1345.000   64.413
 931 1345.625   64.464
 932 1346.250   64.516
 933 1346.875   64.569
 934 1347.500   64.620
 935 1348.125   64.672
 936 1348.750   64.724
 937 1349.375   64.776
 938 1350.000   64.828
 939 1350.625   64.880
 940 1351.250   64.932
 941 1351.875   64.984
 942 1352.500   65.036
 943 1353.125   65.088
 944 1353.750   65.140
 945 1354.375   65.192
 946 1355.000   65.245
 947 1355.625   65.297
 948 1356.250   65.348
 949 1356.875   65.400
 950 1357.500   65.453
 951 1358.125   65.505
 952 1358.750   65.557
 953 1359.375   65.609
 954 1360.000   65.661
 955 1360.625   65.714
 956 1361.250   65.766
 957 1361.875   65.817
 958 1362.500   65.870
 959 1363.125   65.923
 960 1363.750   65.974
 961 1364.375   66.026
 962 1365.000   66.079
 963 1365.625   66.131
 964 1366.250   66.183
 965 1366.875   66.236
 966 1367.500   66.288
 967 1368.125   66.340
 968 1368.750   66.393
 969 1369.375   66.446
 970 1370.000   66.498
 971 1370.625   66.549
 972 1371.250   66.602
 973 1371.875   66.655
 974 1372.500   66.707
 975 1373.125   66.760
 976 1373.750   66.812
 977 1374.375   66.864
 978 1375.000   66.917
 979 1375.625   66.969
 980 1376.250   67.021
 981 1376.875   67.074
 982 1377.500   67.127
 983 1378.125   67.179
 984 1378.750   67.231
 985 1379.375   67.284
 986 1380.000   67.337
 987 1380.625   67.389
 988 1381.250   67.442
 989 1381.875   67.494
 990 1382.500   67.547
 991 1383.125   67.600
 992 1383.750   67.652
 993 1384.375   67.704
 994 1385.000   67.757
 995 1385.625   67.810
 996 1386.250   67.863
 997 1386.875   67.916
 998 1387.500   67.968
 999 1388.125   68.020
1000 1388.750   68.073
1001 1389.375   68.126
1002 1390.000   68.179
1003 1390.625   68.232
1004 1391.250   68.284
1005 1391.875   68.338
1006 1392.500   68.390
1007 1393.125   68.443
1008 1393.750   68.496
1009 1394.375   68.548
1010 1395.000   68.602
1011 1395.625   68.655
1012 1396.250   68.707
1013 1396.875   68.760
1014 1397.500   68.813
1015 1398.125   68.867
1016 1398.750   68.919
1017 1399.375   68.972
1018 1400.000   69.025
1019 1400.625   69.077
1020 1401.250   69.131
1021 1401.875   69.184
1022 1402.500   69.237
1023 1403.125   69.291
1024 1403.750   69.343
1025 1404.375   69.396
1026 1405.000   69.449
1027 1405.625   69.502
1028 1406.250   69.555
1029 1406.875   69.609
1030 1407.500   69.662
1031 1408.125   69.715
1032 1408.750   69.768
1033 1409.375   69.822
1034 1410.000   69.875
1035 1410.625   69.928
1036 1411.250   69.981
1037 1411.875   70.035
1038 1412.500   70.088
1039 1413.125   70.142
1040 1413.750   70.194
1041 1414.375   70.248
1042 1415.000   70.301
1043 1415.625   70.355
1044 1416.250   70.408
1045 1416.875   70.461
1046 1417.500   70.515
1047 1418.125   70.569
1048 1418.750   70.621
1049 1419.375   70.675
1050 1420.000   70.729
1051 1420.625   70.782
1052 1421.250   70.835
1053 1421.875   70.889
1054 1422.500   70.943
1055 1423.125   70.996
1056 1423.750   71.050
1057 1424.375   71.103
1058 1425.000   71.157
1059 1425.625   71.210
1060 1426.250   71.264
1061 1426.875   71.318
1062 1427.500   71.372
1063 1428.125   71.425
1064 1428.750   71.479
1065 1429.375   71.533
1066 1430.000   71.587
1067 1430.625   71.641
1068 1431.250   71.694
1069 1431.875   71.748
1070 1432.500   71.802
1071 1433.125   71.856
1072 1433.750   71.909
1073 1434.375   71.963
1074 1435.000   72.017
1075 1435.625   72.071
1076 1436.250   72.125
1077 1436.875   72.179
1078 1437.500   72.233
1079 1438.125   72.286
1080 1438.750   72.341
1081 1439.375   72.395
1082 1440.000   72.449
1083 1440.625   72.502
1084 1441.250   72.557
1085 1441.875   72.611
1086 1442.500   72.665
1087 1443.125   72.719
1088 1443.750   72.773
1089 1444.375   72.827
1090 1445.000   72.881
1091 1445.625   72.935
1092 1446.250   72.989
1093 1446.875   73.043
1094 1447.500   73.097
1095 1448.125   73.151
1096 1448.750   73.205
1097 1449.375   73.259
1098 1450.000   73.314
1099 1450.625   73.368
1100 1451.250   73.422
1101 1451.875   73.476
1102 1452.500   73.530
1103 1453.125   73.584
1104 1453.750   73.638
1105 1454.375   73.692
1106 1455.000   73.747
1107 1455.625   73.800
1108 1456.250   73.854
1109 1456.875   73.909
1110 1457.500   73.963
1111 1458.125   74.017
1112 1458.750   74.071
1113 1459.375   74.125
1114 1460.000   74.179
1115 1460.625   74.233
1116 1461.250   74.287
1117 1461.875   74.342
1118 1462.500   74.396
1119 1463.125   74.450
1120 1463.750   74.504
1121 1464.375   74.558
1122 1465.000   74.612
1123 1465.625   74.666
1124 1466.250   74.720
1125 1466.875   74.774
1126 1467.500   74.828
1127 1468.125   74.882
1128 1468.750   74.936
1129 1469.375   74.990
1130 1470.000   75.045
1131 1470.625   75.099
1132 1471.250   75.152
1133 1471.875   75.207
1134 1472.500   75.261
1135 1473.125   75.315
1136 1473.750   75.368
1137 1474.375   75.422
1138 1475.000   75.476
1139 1475.625   75.530
1140 1476.250   75.584
1141 1476.875   75.638
1142 1477.500   75.692
1143 1478.125   75.745
1144 1478.750   75.800
1145 1479.375   75.853
1146 1480.000   75.908
1147 1480.625   75.962
1148 1481.250   76.015
1149 1481.875   76.069
1150 1482.500   76.123
1151 1483.125   76.177
1152 1483.750   76.230
1153 1484.375   76.284
1154 1485.000   76.338
1155 1485.625   76.392
1156 1486.250   76.445
1157 1486.875   76.499
1158 1487.500   76.552
1159 1488.125   76.606
1160 1488.750   76.659
1161 1489.375   76.713
1162 1490.000   76.767
1163 1490.625   76.820
1164 1491.250   76.873
1165 1491.875   76.927
1166 1492.500   76.981
1167 1493.125   77.034
1168 1493.750   77.087
1169 1494.375   77.141
1170 1495.000   77.194
1171 1495.625   77.248
1172 1496.250   77.301
1173 1496.875   77.354
1174 1497.500   77.407
1175 1498.125   77.460
1176 1498.750   77.514
1177 1499.375   77.567
1178 1500.000   77.621
1179 1500.625   77.660
1180 1501.250   77.704
1181 1501.875   77.760
1182 1502.500   77.828
1183 1503.125   77.888
1184 1503.750   77.939
1185 1504.375   77.998
1186 1505.000   78.042
1187 1505.625   78.088
1188 1506.250   78.151
1189 1506.875   78.202
1190 1507.500   78.260
1191 1508.125   78.319
1192 1508.750   78.392
1193 1509.375   78.439
1194 1510.000   78.493
1195 1510.625   78.555
1196 1511.250   78.606
1197 1511.875   78.644
1198 1512.500   78.686
1199 1513.125   78.764
1200 1513.750   78.828
1201 1514.375   78.858
1202 1515.000   78.894
1203 1515.625   78.959
1204 1516.250   79.010
1205 1516.875   79.045
1206 1517.500   79.084
1207 1518.125   79.133
1208 1518.750   79.176
1209 1519.375   79.236
1210 1520.000   79.260
1211 1520.625   79.311
1212 1521.250   79.318
1213 1521.875   79.430
1214 1522.500   79.476
1215 1523.125   79.505
1216 1523.750   79.565
1217 1524.375   79.643
1218 1525.000   79.693
1219 1525.625   79.731
1220 1526.250   79.794
1221 1526.875   79.858
1222 1527.500   79.897
1223 1528.125   79.962
1224 1528.750   79.995
1225 1529.375   80.053
1226 1530.000   80.119
1227 1530.625   80.155
1228 1531.250   80.206
1229 1531.875   80.255
1230 1532.500   80.280
1231 1533.125   80.297
1232 1533.750   80.343
1233 1534.375   80.378
1234 1535.000   80.431
1235 1535.625   80.440
1236 1536.250   80.478
1237 1536.875   80.483
1238 1537.500   80.450
1239 1538.125   80.480
1240 1538.750   80.530
1241 1539.375   80.563
1242 1540.000   80.598
1243 1540.625   80.662
1244 1541.250   80.730
1245 1541.875   80.517
1246 1542.500   80.842
1247 1543.125   80.903
1248 1543.750   80.925
1249 1544.375   80.911
1250 1545.000   80.886
1251 1545.625   81.082
1252 1546.250   81.129
1253 1546.875   81.156
1254 1547.500   81.210
1255 1548.125   81.233
1256 1548.750   81.322
1257 1549.375   81.293
1258 1550.000   81.306
1259 1550.625   81.433
1260 1551.250   81.526
1261 1551.875   81.585
1262 1552.500   81.637
1263 1553.125   81.780
1264 1553.750   81.775
1265 1554.375   81.888
1266 1555.000   82.009
1267 1555.625   82.059
1268 1556.250   82.149
1269 1556.875   82.281
1270 1557.500   82.425
1271 1558.125   82.634
1272 1558.750   82.676
1273 1559.375   82.912
1274 1560.000   82.838
1275 1560.625   83.059
1276 1561.250   83.149
1277 1561.875   83.356
1278 1562.500   83.500
1279 1563.125   83.644
1280 1563.750   83.567
1281 1564.375   83.958
1282 1565.000   83.918
1283 1565.625   84.258
1284 1566.250   83.952
1285 1566.875   84.090
1286 1567.500   84.331
1287 1568.125   84.618
1288 1568.750   84.713
1289 1569.375   84.593
1290 1570.000   84.650
1291 1570.625   84.861
1292 1571.250   84.859
1293 1571.875   83.855
1294 1572.500   84.861
1295 1573.125   84.507
1296 1573.750   85.043
1297 1574.375   85.246
1298 1575.000   85.233
1299 1575.625   85.027
1300 1576.250   84.990
1301 1576.875   85.047
1302 1577.500   85.124
1303 1578.125   85.192
1304 1578.750   85.021
1305 1579.375   84.951
1306 1580.000   85.083
1307 1580.625   85.281
1308 1581.250   85.212
1309 1581.875   85.184
1310 1582.500   85.271
1311 1583.125   84.750
1312 1583.750   85.170
1313 1584.375   84.915
1314 1585.000   85.040
1315 1585.625   85.240
1316 1586.250   84.794
1317 1586.875   85.228
1318 1587.500   85.386
1319 1588.125   85.234
1320 1588.750   85.358
1321 1589.375   85.049
1322 1590.000   85.341
1323 1590.625   85.137
1324 1591.250   85.570
1325 1591.875   85.507
1326 1592.500   85.668
1327 1593.125   85.100
1328 1593.750   85.537
1329 1594.375   85.749
1330 1595.000   85.966
1331 1595.625   85.638
1332 1596.250   85.236
1333 1596.875   85.824
1334 1597.500   85.731
1335 1598.125   86.156
1336 1598.750   86.120
1337 1599.375   86.143
1338 1600.000   86.243
1339 1600.625   86.220
1340 1601.250   86.330
1341 1601.875   84.171
1342 1602.500   85.577
1343 1603.125   86.505
1344 1603.750   86.811
1345 1604.375   86.644
1346 1605.000   86.429
1347 1605.625   86.976
1348 1606.250   86.454
1349 1606.875   85.971
1350 1607.500   84.635
1351 1608.125   86.657
1352 1608.750   86.911
1353 1609.375   87.013
1354 1610.000   87.119
1355 1610.625   87.314
1356 1611.250   87.225
1357 1611.875   87.450
1358 1612.500   87.128
1359 1613.125   87.329
1360 1613.750   87.207
1361 1614.375   87.419
1362 1615.000   87.595
1363 1615.625   87.755
1364 1616.250   87.777
1365 1616.875   87.868
1366 1617.500   87.561
1367 1618.125   88.107
1368 1618.750   87.519
1369 1619.375   87.447
1370 1620.000   87.461
1371 1620.625   88.129
1372 1621.250   88.396
1373 1621.875   88.243
1374 1622.500   88.388
1375 1623.125   88.433
1376 1623.750   88.127
1377 1624.375   88.564
1378 1625.000   88.490
1379 1625.625   87.776
1380 1626.250   88.891
1381 1626.875   89.069
1382 1627.500   89.058
1383 1628.125   88.422
1384 1628.750   89.134
1385 1629.375   88.727
1386 1630.000   88.602
1387 1630.625   89.081
1388 1631.250   88.206
1389 1631.875   87.522
1390 1632.500   89.233
1391 1633.125   89.248
1392 1633.750   89.150
1393 1634.375   89.062
1394 1635.000   89.408
1395 1635.625   88.861
1396 1636.250   88.900
1397 1636.875   88.912
1398 1637.500   88.273
1399 1638.125   89.573
1400 1638.750   88.517
1401 1639.375   88.948
1402 1640.000   90.082
1403 1640.625   89.556
1404 1641.250   89.722
1405 1641.875   88.685
1406 1642.500   89.337
1407 1643.125   88.656
1408 1643.750   89.942
1409 1644.375   90.241
1410 1645.000   90.020
1411 1645.625   90.525
1412 1646.250   90.314
1413 1646.875   89.908
1414 1647.500   90.573
1415 1648.125   89.704
1416 1648.750   89.950
1417 1649.375   89.329
1418 1650.000   90.106
1419 1650.625   90.928
1420 1651.250   90.449
1421 1651.875   90.541
1422 1652.500   90.788
1423 1653.125   90.171
1424 1653.750   90.817
1425 1654.375   90.474
1426 1655.000   89.879
1427 1655.625   90.990
1428 1656.250   91.530
1429 1656.875   91.189
1430 1657.500   90.630
1431 1658.125   91.206
1432 1658.750   91.687
1433 1659.375   90.831
1434 1660.000   91.515
1435 1660.625   90.718
1436 1661.250   91.025
1437 1661.875   91.304
1438 1662.500   91.038
1439 1663.125   91.576
1440 1663.750   91.764
1441 1664.375   91.919
1442 1665.000   91.932
1443 1665.625   91.473
1444 1666.250   91.636
1445 1666.875   90.953
1446 1667.500   92.188
1447 1668.125   91.610
1448 1668.750   92.608
1449 1669.375   92.181
1450 1670.000   92.320
1451 1670.625   92.144
1452 1671.250   92.906
1453 1671.875   91.750
1454 1672.500   91.737
1455 1673.125   92.338
1456 1673.750   93.092
1457 1674.375   92.988
1458 1675.000   93.167
1459 1675.625   92.796
1460 1676.250   93.273
1461 1676.875   93.040
1462 1677.500   92.888
1463 1678.125   93.047
1464 1678.750   91.895
1465 1679.375   93.806
1466 1680.000   93.458
1467 1680.625   93.644
1468 1681.250   92.283
1469 1681.875   94.107
1470 1682.500   94.166
1471 1683.125   93.752
1472 1683.750   94.296
1473 1684.375   93.369
1474 1685.000   94.302
1475 1685.625   95.173
1476 1686.250   94.990
1477 1686.875   94.791
1478 1687.500   94.950
1479 1688.125   95.459
1480 1688.750   95.003
1481 1689.375   95.071
1482 1690.000   94.580
1483 1690.625   94.359
1484 1691.250   95.591
1485 1691.875   95.062
1486 1692.500   95.290
1487 1693.125   95.648
1488 1693.750   95.246
1489 1694.375   95.599
1490 1695.000   95.586
1491 1695.625   95.110
1492 1696.250   94.090
1493 1696.875   95.102
1494 1697.500   95.765
1495 1698.125   96.675
1496 1698.750   96.949
1497 1699.375   96.522
1498 1700.000   95.617
1499 1700.625   96.881
1500 1701.250   95.240
1501 1701.875   96.325
1502 1702.500   95.362
1503 1703.125   96.756
1504 1703.750   96.878
1505 1704.375   97.087
1506 1705.000   96.744
1507 1705.625   97.577
1508 1706.250   96.694
1509 1706.875   97.334
1510 1707.500   97.430
1511 1708.125   96.141
1512 1708.750   97.847
1513 1709.375   98.532
1514 1710.000   98.168
1515 1710.625   97.860
1516 1711.250   98.120
1517 1711.875   98.919
1518 1712.500   97.508
1519 1713.125   98.588
1520 1713.750   96.992
1521 1714.375   97.859
1522 1715.000   98.866
1523 1715.625   99.067
1524 1716.250   98.370
1525 1716.875   99.636
1526 1717.500   99.492
1527 1718.125   99.101
1528 1718.750   98.363
1529 1719.375   99.020
1530 1720.000   98.258
1531 1720.625   98.730
1532 1721.250   99.440
1533 1721.875  100.101
1534 1722.500  100.566
1535 1723.125  100.606
1536 1723.750   99.657
1537 1724.375  100.633
1538 1725.000   99.301
1539 1725.625   99.518
1540 1726.250   98.650
1541 1726.875  100.410
1542 1727.500  100.892
1543 1728.125  101.195
1544 1728.750  100.924
1545 1729.375  100.385
1546 1730.000  101.099
1547 1730.625   99.939
1548 1731.250  100.495
1549 1731.875   99.725
1550 1732.500  100.947
1551 1733.125  101.648
1552 1733.750  102.004
1553 1734.375  100.829
1554 1735.000  101.584
1555 1735.625  101.478
1556 1736.250  101.488
1557 1736.875  101.525
1558 1737.500   99.676
1559 1738.125  100.603
1560 1738.750  102.536
1561 1739.375  102.293
1562 1740.000  102.071
1563 1740.625  102.390
1564 1741.250  103.266
1565 1741.875  102.431
1566 1742.500  103.068
1567 1743.125  102.276
1568 1743.750  101.855
1569 1744.375  102.219
1570 1745.000  103.340
1571 1745.625  102.475
1572 1746.250  103.682
1573 1746.875  103.927
1574 1747.500  103.212
1575 1748.125  103.186
1576 1748.750  103.211
1577 1749.375  103.309
1578 1750.000  100.867
2224 1750.625  103.401
2225 1751.250  103.797
2226 1751.875  104.657
2227 1752.500  104.655
2228 2152.500  156.942
2229 2153.125  157.619
2230 2153.750  155.757
2231 2154.375  158.562
1579 2155.000  158.841
1580 2155.625  156.024
1581 2156.250  156.793
1582 2156.875  157.525
1583 2157.500  161.398
1584 2158.125  156.325
1585 2158.750  161.242
1586 2159.375  157.028
1587 2160.000  155.363
1588 2160.625  161.524
1589 2161.250  156.199
1590 2161.875  153.725
1591 2162.500  158.906
1592 2163.125  158.222
1593 2163.750  158.691
1594 2164.375  154.139
1595 2165.000  160.894
1596 2165.625  156.686
1597 2166.250  152.145
1598 2166.875  157.808
1599 2167.500  160.738
1600 2168.125  159.662
1601 2168.750  163.130
1602 2169.375  154.201
1603 2170.000  155.490
1604 2170.625  162.762
1605 2171.250  161.603
1606 2171.875  157.077
1607 2172.500  160.214
1608 2173.125  155.353
1609 2173.750  160.609
1610 2174.375  160.070
1611 2175.000  162.999
1612 2175.625  158.648
1613 2176.250  155.148
1614 2176.875  159.096
1615 2177.500  163.070
1616 2178.125  163.083
1617 2178.750  154.322
1618 2179.375  158.697
1619 2180.000  159.372
1620 2180.625  159.394
1621 2181.250  157.941
1622 2181.875  163.186
1623 2182.500  161.826
1624 2183.125  160.347
1625 2183.750  161.140
1626 2184.375  165.572
1627 2185.000  163.342
1628 2185.625  159.757
1629 2186.250  164.269
1630 2186.875  160.961
1631 2187.500  164.925
1632 2188.125  162.177
1633 2188.750  164.220
1634 2189.375  161.008
1635 2190.000  160.521
1636 2190.625  164.709
1637 2191.250  165.214
1638 2191.875  159.101
1639 2192.500  168.145
1640 2193.125  163.666
1641 2193.750  164.823
1642 2194.375  160.854
1643 2195.000  169.078
1644 2195.625  165.103
1645 2196.250  167.856
1646 2196.875  159.373
1647 2197.500  163.035
1648 2198.125  166.471
1649 2198.750  167.164
1650 2199.375  162.703
1651 2200.000  160.431
1652 2200.625  166.377
1653 2201.250  168.116
1654 2201.875  162.929
1655 2202.500  167.973
1656 2203.125  160.792
1657 2203.750  168.530
1658 2204.375  167.332
1659 2205.000  165.920
1660 2205.625  166.918
1661 2206.250  160.614
1662 2206.875  164.221
1663 2207.500  169.186
1664 2208.125  167.245
1665 2208.750  157.167
1666 2209.375  163.001
1667 2210.000  160.430
1668 2210.625  170.918
1669 2211.250  165.559
1670 2211.875  168.220
1671 2212.500  168.193
1672 2213.125  169.442
1673 2213.750  171.486
1674 2214.375  169.855
1675 2215.000  170.835
1676 2215.625  165.641
1677 2216.250  170.604
1678 2216.875  169.101
1679 2217.500  168.670
1680 2218.125  172.934
1681 2218.750  166.406
1682 2219.375  159.942
1683 2220.000  171.262
1684 2220.625  172.164
1685 2221.250  174.266
1686 2221.875  163.215
1687 2222.500  174.177
1688 2223.125  172.948
1689 2223.750  170.721
1690 2224.375  167.396
1691 2225.000  172.261
1692 2225.625  170.678
1693 2226.250  173.815
1694 2226.875  171.415
1695 2227.500  163.250
1696 2228.125  173.989
1697 2228.750  174.074
1698 2229.375  167.833
1699 2230.000  174.939
1700 2230.625  171.030
1701 2231.250  170.700
1702 2231.875  169.721
1703 2232.500  175.620
1704 2233.125  167.936
1705 2233.750  172.154
1706 2234.375  170.487
1707 2235.000  170.661
1708 2235.625  173.999
1709 2236.250  167.416
1710 2236.875  167.636
1711 2237.500  174.323
1712 2238.125  171.596
1713 2238.750  164.191
1714 2239.375  167.132
1715 2240.000  173.957
1716 2240.625  177.848
1717 2241.250  171.840
1718 2241.875  173.059
1719 2242.500  178.354
1720 2243.125  171.921
1721 2243.750  177.697
1722 2244.375  172.138
1723 2245.000  178.087
1724 2245.625  174.226
1725 2246.250  175.992
1726 2246.875  175.469
1727 2247.500  170.812
1728 2248.125  178.272
1729 2248.750  177.032
1730 2249.375  175.453
1731 2250.000  173.395
1732 2250.625  179.329
1733 2251.250  179.132
1734 2251.875  172.017
1735 2252.500  175.231
1736 2253.125  179.622
1737 2253.750  173.968
1738 2254.375  178.015
1739 2255.000  174.876
1740 2255.625  176.614
1741 2256.250  174.579
1742 2256.875  178.901
1743 2257.500  172.707
1744 2258.125  178.252
1745 2258.750  181.278
1746 2259.375  173.794
1747 2260.000  176.808
1748 2260.625  181.009
1749 2261.250  175.926
1750 2261.875  174.971
1751 2262.500  179.301
1752 2263.125  176.377
1753 2263.750  180.264
1754 2264.375  175.750
1755 2265.000  174.595
1756 2265.625  179.586
1757 2266.250  178.846
1758 2266.875  170.436
1759 2267.500  178.280
1760 2268.125  175.035
1761 2268.750  169.074
1762 2269.375  178.739
1763 2270.000  178.954
1764 2270.625  182.928
1765 2271.250  173.615
1766 2271.875  180.812
1767 2272.500  184.210
1768 2273.125  178.353
1769 2273.750  181.022
1770 2274.375  182.470
1771 2275.000  183.976
1772 2275.625  179.377
1773 2276.250  181.392
1774 2276.875  184.906
1775 2277.500  179.243
1776 2278.125  182.784
1777 2278.750  181.544
1778 2279.375  185.041
1779 2280.000  177.039
1780 2280.625  185.247
1781 2281.250  182.987
1782 2281.875  180.444
1783 2282.500  182.776
1784 2283.125  184.859
1785 2283.750  177.903
1786 2284.375  184.459
1787 2285.000  182.212
1788 2285.625  182.580
1789 2286.250  181.733
1790 2286.875  184.710
1791 2287.500  184.386
1792 2288.125  181.022
1793 2288.750  185.964
1794 2289.375  183.195
1795 2290.000  180.515
1796 2290.625  185.286
1797 2291.250  182.272
1798 2291.875  181.336
1799 2292.500  183.515
1800 2293.125  181.378
1801 2293.750  184.433
1802 2294.375  185.444
1803 2295.000  179.976
1804 2295.625  183.863
1805 2296.250  183.441
1806 2296.875  178.707
1807 2297.500  181.569
1808 2298.125  177.392
1809 2298.750  179.985
1810 2299.375  187.672
1811 2300.000  182.731
1812 2300.625  188.351
1813 2301.250  186.961
1814 2301.875  186.179
1815 2302.500  189.456
1816 2303.125  185.288
1817 2303.750  188.942
1818 2304.375  187.454
1819 2305.000  188.658
1820 2305.625  189.199
1821 2306.250  186.173
1822 2306.875  189.815
1823 2307.500  185.136
1824 2308.125  186.953
1825 2308.750  184.904
1826 2309.375  189.702
1827 2310.000  186.299
1828 2310.625  189.965
1829 2311.250  187.176
1830 2311.875  189.331
1831 2312.500  187.068
1832 2313.125  190.041
1833 2313.750  186.293
1834 2314.375  190.133
1835 2315.000  186.665
1836 2315.625  190.349
1837 2316.250  188.071
1838 2316.875  188.741
1839 2317.500  190.600
1840 2318.125  187.961
1841 2318.750  190.022
1842 2319.375  187.549
1843 2320.000  187.629
1844 2320.625  189.314
1845 2321.250  190.350
1846 2321.875  188.996
1847 2322.500  188.694
1848 2323.125  189.048
1849 2323.750  188.582
1850 2324.375  188.579
1851 2325.000  188.411
1852 2325.625  187.816
1853 2326.250  187.725
1854 2326.875  187.007
1855 2327.500  184.800
1856 2328.125  179.752
1857 2328.750  191.946
1858 2329.375  193.415
1859 2330.000  193.497
1860 2330.625  193.487
1861 2331.250  193.516
1862 2331.875  193.413
1863 2332.500  193.496
1864 2333.125  193.702
1865 2333.750  193.941
1866 2334.375  194.047
1867 2335.000  194.266
1868 2335.625  194.290
1869 2336.250  194.485
1870 2336.875  194.702
1871 2337.500  194.616
1872 2338.125  194.933
1873 2338.750  194.977
1874 2339.375  194.903
1875 2340.000  195.092
1876 2340.625  195.099
1877 2341.250  195.304
1878 2341.875  195.460
1879 2342.500  195.457
1880 2343.125  195.566
1881 2343.750  195.631
1882 2344.375  195.579
1883 2345.000  196.060
1884 2345.625  196.163
1885 2346.250  196.109
1886 2346.875  195.849
1887 2347.500  196.405
1888 2348.125  196.493
1889 2348.750  196.621
1890 2349.375  196.613
1891 2350.000  196.789
1892 2350.625  196.779
1893 2351.250  196.888
1894 2351.875  196.093
1895 2352.500  197.037
1896 2353.125  197.254
1897 2353.750  197.336
1898 2354.375  197.269
1899 2355.000  196.800
1900 2355.625  197.621
1901 2356.250  197.744
1902 2356.875  197.739
1903 2357.500  197.783
1904 2358.125  197.565
1905 2358.750  197.866
1906 2359.375  198.129
1907 2360.000  197.866
1908 2360.625  198.298
1909 2361.250  198.151
1910 2361.875  197.975
1911 2362.500  198.573
1912 2363.125  198.727
1913 2363.750  198.900
1914 2364.375  198.890
1915 2365.000  199.158
1916 2365.625  199.099
1917 2366.250  199.452
1918 2366.875  199.486
1919 2367.500  199.617
1920 2368.125  199.865
1921 2368.750  200.080
1922 2369.375  200.224
1923 2370.000  200.197
1924 2370.625  200.331
1925 2371.250  200.576
1926 2371.875  200.777
1927 2372.500  200.902
1928 2373.125  201.092
1929 2373.750  201.019
1930 2374.375  200.871
1931 2375.000  200.868
1932 2375.625  199.788
1933 2376.250  196.058
1934 2376.875  200.529
1935 2377.500  192.671
1936 2378.125  198.483
1937 2378.750  201.452
1938 2379.375  201.173
1939 2380.000  194.244
1940 2380.625  197.936
1941 2381.250  201.588
1942 2381.875  202.056
1943 2382.500  202.360
1944 2383.125  202.471
1945 2383.750  202.863
1946 2384.375  202.868
1947 2385.000  202.099
1948 2385.625  199.268
1949 2386.250  203.410
1950 2386.875  203.656
1951 2387.500  203.858
1952 2388.125  203.889
1953 2388.750  203.670
1954 2389.375  203.848
1955 2390.000  200.084
1956 2390.625  204.336
1957 2391.250  203.959
1958 2391.875  203.275
1959 2392.500  204.631
1960 2393.125  204.691
1961 2393.750  204.536
1962 2394.375  205.125
1963 2395.000  205.389
1964 2395.625  205.425
1965 2396.250  205.499
1966 2396.875  205.435
1967 2397.500  205.569
1968 2398.125  205.935
1969 2398.750  206.038
1970 2399.375  204.527
1971 2400.000  206.298
1972 2400.625  206.496
1973 2401.250  206.787
1974 2401.875  206.784
1975 2402.500  206.980
1976 2403.125  207.150
1977 2403.750  207.336
1978 2404.375  207.349
1979 2405.000  207.672
1980 2405.625  207.847
1981 2406.250  207.925
1982 2406.875  207.957
1983 2407.500  208.036
1984 2408.125  208.124
1985 2408.750  207.954
1986 2409.375  208.171
1987 2410.000  208.237
1988 2410.625  207.268
1989 2411.250  208.854
1990 2411.875  209.118
1991 2412.500  209.316
1992 2413.125  207.177
1993 2413.750  208.633
1994 2414.375  209.748
1995 2415.000  208.952
1996 2415.625  209.159
1997 2416.250  209.822
1998 2416.875  208.055
1999 2417.500  210.382
2000 2418.125  210.588
2001 2418.750  208.471
2002 2419.375  208.582
2003 2420.000  210.931
2004 2420.625  211.120
2005 2421.250  211.292
2006 2421.875  211.447
2007 2422.500  211.460
2008 2423.125  211.684
2009 2423.750  211.658
2010 2424.375  211.813
2011 2425.000  211.166
2012 2425.625  212.126
2013 2426.250  212.223
2014 2426.875  212.390
2015 2427.500  212.477
2016 2428.125  212.695
2017 2428.750  212.865
2018 2429.375  213.031
2019 2430.000  213.088
2020 2430.625  213.345
2021 2431.250  213.468
2022 2431.875  212.666
2023 2432.500  206.819
2024 2433.125  212.883
2025 2433.750  213.826
2026 2434.375  213.867
2027 2435.000  214.258
2028 2435.625  214.250
2029 2436.250  214.583
2030 2436.875  214.846
2031 2437.500  214.325
2032 2438.125  213.129
2033 2438.750  214.777
2034 2439.375  215.044
2035 2440.000  215.297
2036 2440.625  214.962
2037 2441.250  215.365
2038 2441.875  215.512
2039 2442.500  215.550
2040 2443.125  215.276
2041 2443.750  215.376
2042 2444.375  215.656
2043 2445.000  215.841
2044 2445.625  213.234
2045 2446.250  213.430
2046 2446.875  215.985
2047 2447.500  215.991
2048 2448.125  216.295
2049 2448.750  215.439
2050 2449.375  215.293
2051 2450.000  216.446
2052 2450.625  215.755
2053 2451.250  216.061
2054 2451.875  216.926
2055 2452.500  216.810
2056 2453.125  216.951
2057 2453.750  217.244
2058 2454.375  217.039
2059 2455.000  217.478
2060 2455.625  217.418
2061 2456.250  216.891
2062 2456.875  215.695
2063 2457.500  216.284
2064 2458.125  217.216
2065 2458.750  216.935
2066 2459.375  217.525
2067 2460.000  214.612
2068 2460.625  217.534
2069 2461.250  218.526
2070 2461.875  217.594
2071 2462.500  217.637
2072 2463.125  212.255
2073 2463.750  213.182
2074 2464.375  217.748
2075 2465.000  218.289
2076 2465.625  217.827
2077 2466.250  215.736
2078 2466.875  211.944
2079 2467.500  199.807
2080 2468.125  202.966
2081 2468.750  212.915
2082 2469.375  216.842
2083 2470.000  218.271
2084 2470.625  218.849
2085 2471.250  219.360
2086 2471.875  219.399
2087 2472.500  212.523
2088 2473.125  218.263
2089 2473.750  219.880
2090 2474.375  220.219
2091 2475.000  220.222
2092 2475.625  219.777
2093 2476.250  217.142
2094 2476.875  220.134
2095 2477.500  220.535
2096 2478.125  220.154
2097 2478.750  218.244
2098 2479.375  218.409
2099 2480.000  220.775
2100 2480.625  221.095
2101 2481.250  221.091
2102 2481.875  221.248
2103 2482.500  221.285
2104 2483.125  221.133
2105 2483.750  219.322
2106 2484.375  220.884
2107 2485.000  221.384
2108 2485.625  220.967
2109 2486.250  220.626
2110 2486.875  220.420
2111 2487.500  220.157
2112 2488.125  221.286
2113 2488.750  221.157
2114 2489.375  219.942
2115 2490.000  219.089
2116 2490.625  218.211
2117 2491.250  221.768
2118 2491.875  222.237
2119 2492.500  222.632
2120 2493.125  221.040
2121 2493.750  222.426
2122 2494.375  222.149
2123 2495.000  222.355
2124 2495.625  221.528
2125 2496.250  221.459
2126 2496.875  222.406
2127 2497.500  222.344
2128 2498.125  222.250
2129 2498.750  222.221
2130 2499.375  218.435
2131 2500.000  218.577
2132 2500.625  217.627
2133 2501.250  221.006
2134 2501.875  221.653
2135 2502.500  219.459
2136 2503.125  221.459
2137 2503.750  223.596
2138 2504.375  223.237
2139 2505.000  222.533
2140 2505.625  221.556
2141 2506.250  220.065
2142 2506.875  219.603
2143 2507.500  220.444
2144 2508.125  218.795
2145 2508.750  216.940
2146 2509.375  220.558
2147 2510.000  223.474
2148 2510.625  222.916
2149 2511.250  222.539
2150 2511.875  221.327
2151 2512.500  215.394
2152 2513.125  222.447
2153 2513.750  224.454
2154 2514.375  224.922
2155 2515.000  225.294
2156 2515.625  220.457
2157 2516.250  221.875
2158 2516.875  225.070
2159 2517.500  225.481
2160 2518.125  224.660
2161 2518.750  220.266
2162 2519.375  220.766
2163 2520.000  223.843
2164 2520.625  225.334
2165 2521.250  225.189
2166 2521.875  225.706
2167 2522.500  225.680
2168 2523.125  226.197
2169 2523.750  226.168
2170 2524.375  226.103
2171 2525.000  226.368
2172 2525.625  225.024
2173 2526.250  226.384
2174 2526.875  226.508
2175 2527.500  226.655
2176 2528.125  226.714
2177 2528.750  226.690
2178 2529.375  226.914
2179 2530.000  226.081
2180 2530.625  224.288
2181 2531.250  225.922
2182 2531.875  225.757
2183 2532.500  227.287
2184 2533.125  227.309
2185 2533.750  227.024
2186 2534.375  226.669
2187 2535.000  226.442
2188 2535.625  226.619
2189 2536.250  227.357
2190 2536.875  226.692
2191 2537.500  227.534
2192 2538.125  227.826
2193 2538.750  227.556
2194 2539.375  227.552
2195 2540.000  227.452
2196 2540.625  227.709
2197 2541.250  226.275
2198 2541.875  225.816
2199 2542.500  227.409
2200 2543.125  227.299
2201 2543.750  227.487
2202 2544.375  227.062
2203 2545.000  228.303
2204 2545.625  227.341
2205 2546.250  228.336
2206 2546.875  228.230
2207 2547.500  227.905
2208 2548.125  228.106
2209 2548.750  227.792
2210 2549.375  228.697
2211 2550.000  228.837
2232 2550.625  228.740
2233 2551.250  229.009
2234 2551.875  228.993
2235 2552.500  227.811

